# NIRI CH4ice2275 G0243
# BARR ED729-3
# AO 60mm Dia X 5mm thick
# Data measured in center of filter at 298K, f/8, 0 deg incidence
#
# wav(nm) Transmission
2450.25  0.00000
2450.00  0.00063
2449.75  0.00116
2449.50  0.00000
2449.25  0.00000
2449.00  0.00039
2448.75  0.00000
2448.50  0.00071
2448.25  0.00084
2448.00  0.00039
2447.75  0.00001
2447.50  0.00052
2447.25  0.00000
2447.00  0.00090
2446.75  0.00039
2446.50  0.00059
2446.25  0.00111
2446.00  0.00073
2445.75  0.00014
2445.50  0.00210
2445.25  0.00125
2445.00  0.00032
2444.75  0.00045
2444.50  0.00039
2444.25  0.00033
2444.00  0.00096
2443.75  0.00000
2443.50  0.00051
2443.25  0.00000
2443.00  0.00097
2442.75  0.00097
2442.50  0.00027
2442.25  0.00141
2442.00  0.00014
2441.75  0.00000
2441.50  0.00071
2441.25  0.00121
2441.00  0.00000
2440.75  0.00000
2440.50  0.00077
2440.25  0.00000
2440.00  0.00027
2439.75  0.00078
2439.50  0.00135
2439.25  0.00078
2439.00  0.00033
2438.75  0.00052
2438.50  0.00071
2438.25  0.00071
2438.00  0.00120
2437.75  0.00109
2437.50  0.00108
2437.25  0.00110
2437.00  0.00040
2436.75  0.00141
2436.50  0.00059
2436.25  0.00034
2436.00  0.00027
2435.75  0.00103
2435.50  0.00078
2435.25  0.00103
2435.00  0.00097
2434.75  0.00144
2434.50  0.00063
2434.25  0.00106
2434.00  0.00000
2433.75  0.00116
2433.50  0.00078
2433.25  0.00052
2433.00  0.00153
2432.75  0.00090
2432.50  0.00096
2432.25  0.00121
2432.00  0.00171
2431.75  0.00192
2431.50  0.00153
2431.25  0.00190
2431.00  0.00129
2430.75  0.00046
2430.50  0.00148
2430.25  0.00058
2430.00  0.00115
2429.75  0.00096
2429.50  0.00189
2429.25  0.00127
2429.00  0.00058
2428.75  0.00139
2428.50  0.00170
2428.25  0.00097
2428.00  0.00097
2427.75  0.00108
2427.50  0.00083
2427.25  0.00078
2427.00  0.00084
2426.75  0.00145
2426.50  0.00033
2426.25  0.00255
2426.00  0.00071
2425.75  0.00045
2425.50  0.00102
2425.25  0.00147
2425.00  0.00102
2424.75  0.00223
2424.50  0.00065
2424.25  0.00104
2424.00  0.00122
2423.75  0.00102
2423.50  0.00121
2423.25  0.00064
2423.00  0.00114
2422.75  0.00121
2422.50  0.00083
2422.25  0.00204
2422.00  0.00134
2421.75  0.00008
2421.50  0.00039
2421.25  0.00083
2421.00  0.00139
2420.75  0.00235
2420.50  0.00083
2420.25  0.00177
2420.00  0.00039
2419.75  0.00158
2419.50  0.00176
2419.25  0.00136
2419.00  0.00154
2418.75  0.00179
2418.50  0.00179
2418.25  0.00096
2418.00  0.00183
2417.75  0.00209
2417.50  0.00220
2417.25  0.00277
2417.00  0.00102
2416.75  0.00071
2416.50  0.00127
2416.25  0.00217
2416.00  0.00213
2415.75  0.00128
2415.50  0.00223
2415.25  0.00232
2415.00  0.00202
2414.75  0.00171
2414.50  0.00203
2414.25  0.00134
2414.00  0.00171
2413.75  0.00164
2413.50  0.00195
2413.25  0.00228
2413.00  0.00109
2412.75  0.00236
2412.50  0.00202
2412.25  0.00166
2412.00  0.00192
2411.75  0.00295
2411.50  0.00216
2411.25  0.00232
2411.00  0.00283
2410.75  0.00203
2410.50  0.00290
2410.25  0.00274
2410.00  0.00253
2409.75  0.00205
2409.50  0.00287
2409.25  0.00309
2409.00  0.00241
2408.75  0.00298
2408.50  0.00323
2408.25  0.00333
2408.00  0.00277
2407.75  0.00247
2407.50  0.00203
2407.25  0.00375
2407.00  0.00305
2406.75  0.00350
2406.50  0.00514
2406.25  0.00318
2406.00  0.00453
2405.75  0.00400
2405.50  0.00376
2405.25  0.00396
2405.00  0.00463
2404.75  0.00498
2404.50  0.00408
2404.25  0.00390
2404.00  0.00406
2403.75  0.00461
2403.50  0.00452
2403.25  0.00398
2403.00  0.00606
2402.75  0.00468
2402.50  0.00543
2402.25  0.00567
2402.00  0.00528
2401.75  0.00550
2401.50  0.00366
2401.25  0.00612
2401.00  0.00456
2400.75  0.00439
2400.50  0.00609
2400.25  0.00533
2400.00  0.00702
2399.75  0.00610
2399.50  0.00526
2399.25  0.00703
2399.00  0.00691
2398.75  0.00622
2398.50  0.00718
2398.25  0.00684
2398.00  0.00645
2397.75  0.00639
2397.50  0.00673
2397.25  0.00745
2397.00  0.00646
2396.75  0.00808
2396.50  0.00727
2396.25  0.00764
2396.00  0.00842
2395.75  0.00849
2395.50  0.00786
2395.25  0.00834
2395.00  0.00897
2394.75  0.00806
2394.50  0.00904
2394.25  0.00860
2394.00  0.00954
2393.75  0.01005
2393.50  0.00999
2393.25  0.01105
2393.00  0.01033
2392.75  0.01031
2392.50  0.01095
2392.25  0.01092
2392.00  0.01173
2391.75  0.01119
2391.50  0.01237
2391.25  0.01185
2391.00  0.01237
2390.75  0.01116
2390.50  0.01269
2390.25  0.01316
2390.00  0.01421
2389.75  0.01307
2389.50  0.01371
2389.25  0.01376
2389.00  0.01378
2388.75  0.01529
2388.50  0.01433
2388.25  0.01617
2388.00  0.01507
2387.75  0.01610
2387.50  0.01505
2387.25  0.01719
2387.00  0.01602
2386.75  0.01816
2386.50  0.01808
2386.25  0.01755
2386.00  0.01853
2385.75  0.01871
2385.50  0.01980
2385.25  0.02040
2385.00  0.01920
2384.75  0.02028
2384.50  0.02147
2384.25  0.02220
2384.00  0.02276
2383.75  0.02247
2383.50  0.02314
2383.25  0.02327
2383.00  0.02412
2382.75  0.02415
2382.50  0.02468
2382.25  0.02605
2382.00  0.02485
2381.75  0.02614
2381.50  0.02729
2381.25  0.02715
2381.00  0.02793
2380.75  0.02805
2380.50  0.02911
2380.25  0.02987
2380.00  0.03138
2379.75  0.03226
2379.50  0.03215
2379.25  0.03204
2379.00  0.03402
2378.75  0.03485
2378.50  0.03438
2378.25  0.03608
2378.00  0.03707
2377.75  0.03743
2377.50  0.03895
2377.25  0.03874
2377.00  0.04022
2376.75  0.04187
2376.50  0.04200
2376.25  0.04383
2376.00  0.04334
2375.75  0.04451
2375.50  0.04594
2375.25  0.04767
2375.00  0.04843
2374.75  0.04874
2374.50  0.05061
2374.25  0.05176
2374.00  0.05230
2373.75  0.05378
2373.50  0.05400
2373.25  0.05660
2373.00  0.05722
2372.75  0.05814
2372.50  0.05912
2372.25  0.06063
2372.00  0.06303
2371.75  0.06410
2371.50  0.06556
2371.25  0.06804
2371.00  0.06944
2370.75  0.07005
2370.50  0.07363
2370.25  0.07300
2370.00  0.07582
2369.75  0.07713
2369.50  0.07898
2369.25  0.08008
2369.00  0.08324
2368.75  0.08474
2368.50  0.08738
2368.25  0.08811
2368.00  0.09161
2367.75  0.09193
2367.50  0.09397
2367.25  0.09712
2367.00  0.09865
2366.75  0.10146
2366.50  0.10396
2366.25  0.10600
2366.00  0.10845
2365.75  0.10946
2365.50  0.11335
2365.25  0.11649
2365.00  0.11856
2364.75  0.12071
2364.50  0.12241
2364.25  0.12734
2364.00  0.12901
2363.75  0.13278
2363.50  0.13445
2363.25  0.13893
2363.00  0.14165
2362.75  0.14488
2362.50  0.14772
2362.25  0.15092
2362.00  0.15398
2361.75  0.15772
2361.50  0.16255
2361.25  0.16511
2361.00  0.16875
2360.75  0.17315
2360.50  0.17572
2360.25  0.18063
2360.00  0.18435
2359.75  0.18779
2359.50  0.19366
2359.25  0.19692
2359.00  0.20074
2358.75  0.20444
2358.50  0.21034
2358.25  0.21441
2358.00  0.21788
2357.75  0.22450
2357.50  0.22851
2357.25  0.23444
2357.00  0.23929
2356.75  0.24294
2356.50  0.24767
2356.25  0.25352
2356.00  0.25847
2355.75  0.26357
2355.50  0.27062
2355.25  0.27433
2355.00  0.28030
2354.75  0.28596
2354.50  0.29155
2354.25  0.29680
2354.00  0.30351
2353.75  0.30853
2353.50  0.31406
2353.25  0.32019
2353.00  0.32665
2352.75  0.33232
2352.50  0.33838
2352.25  0.34540
2352.00  0.35048
2351.75  0.35857
2351.50  0.36348
2351.25  0.37117
2351.00  0.37673
2350.75  0.38394
2350.50  0.38993
2350.25  0.39656
2350.00  0.40504
2349.75  0.40999
2349.50  0.41716
2349.25  0.42464
2349.00  0.43046
2348.75  0.43737
2348.50  0.44343
2348.25  0.45119
2348.00  0.45980
2347.75  0.46470
2347.50  0.47112
2347.25  0.47872
2347.00  0.48586
2346.75  0.49318
2346.50  0.49949
2346.25  0.50566
2346.00  0.51479
2345.75  0.52033
2345.50  0.52694
2345.25  0.53456
2345.00  0.54147
2344.75  0.54756
2344.50  0.55467
2344.25  0.56112
2344.00  0.56737
2343.75  0.57453
2343.50  0.58070
2343.25  0.58713
2343.00  0.59374
2342.75  0.60064
2342.50  0.60743
2342.25  0.61403
2342.00  0.62064
2341.75  0.62613
2341.50  0.63128
2341.25  0.63718
2341.00  0.64409
2340.75  0.64967
2340.50  0.65537
2340.25  0.66145
2340.00  0.66785
2339.75  0.67284
2339.50  0.67752
2339.25  0.68316
2339.00  0.68940
2338.75  0.69369
2338.50  0.69905
2338.25  0.70396
2338.00  0.70881
2337.75  0.71384
2337.50  0.71794
2337.25  0.72349
2337.00  0.72767
2336.75  0.73207
2336.50  0.73671
2336.25  0.74049
2336.00  0.74491
2335.75  0.75096
2335.50  0.75318
2335.25  0.75693
2335.00  0.75968
2334.75  0.76499
2334.50  0.76744
2334.25  0.77128
2334.00  0.77482
2333.75  0.77864
2333.50  0.78134
2333.25  0.78482
2333.00  0.78709
2332.75  0.78959
2332.50  0.79286
2332.25  0.79502
2332.00  0.79789
2331.75  0.80104
2331.50  0.80326
2331.25  0.80590
2331.00  0.80803
2330.75  0.81047
2330.50  0.81216
2330.25  0.81448
2330.00  0.81654
2329.75  0.81775
2329.50  0.81812
2329.25  0.82101
2329.00  0.82345
2328.75  0.82443
2328.50  0.82571
2328.25  0.82721
2328.00  0.82947
2327.75  0.83178
2327.50  0.83208
2327.25  0.83430
2327.00  0.83365
2326.75  0.83464
2326.50  0.83669
2326.25  0.83766
2326.00  0.83815
2325.75  0.83885
2325.50  0.83997
2325.25  0.84093
2325.00  0.84050
2324.75  0.84303
2324.50  0.84316
2324.25  0.84386
2324.00  0.84561
2323.75  0.84438
2323.50  0.84428
2323.25  0.84563
2323.00  0.84684
2322.75  0.84721
2322.50  0.84745
2322.25  0.84904
2322.00  0.84816
2321.75  0.84840
2321.50  0.84799
2321.25  0.84830
2321.00  0.85066
2320.75  0.84816
2320.50  0.84938
2320.25  0.85038
2320.00  0.84947
2319.75  0.84960
2319.50  0.84962
2319.25  0.85014
2319.00  0.84990
2318.75  0.85048
2318.50  0.85152
2318.25  0.84994
2318.00  0.85082
2317.75  0.85121
2317.50  0.84903
2317.25  0.84987
2317.00  0.85066
2316.75  0.85114
2316.50  0.85039
2316.25  0.85055
2316.00  0.85079
2315.75  0.84955
2315.50  0.85117
2315.25  0.85176
2315.00  0.85064
2314.75  0.84999
2314.50  0.85068
2314.25  0.85131
2314.00  0.85104
2313.75  0.85064
2313.50  0.84946
2313.25  0.85093
2313.00  0.85076
2312.75  0.85001
2312.50  0.85134
2312.25  0.85017
2312.00  0.84788
2311.75  0.84908
2311.50  0.85010
2311.25  0.85017
2311.00  0.85021
2310.75  0.85075
2310.50  0.84975
2310.25  0.84863
2310.00  0.84968
2309.75  0.84950
2309.50  0.84881
2309.25  0.84873
2309.00  0.84981
2308.75  0.85090
2308.50  0.84973
2308.25  0.84908
2308.00  0.84866
2307.75  0.84955
2307.50  0.84982
2307.25  0.84904
2307.00  0.84987
2306.75  0.84868
2306.50  0.85020
2306.25  0.85066
2306.00  0.84950
2305.75  0.84988
2305.50  0.85029
2305.25  0.85048
2305.00  0.84988
2304.75  0.84929
2304.50  0.85056
2304.25  0.85026
2304.00  0.85067
2303.75  0.85040
2303.50  0.85088
2303.25  0.85011
2303.00  0.85093
2302.75  0.85224
2302.50  0.85157
2302.25  0.85183
2302.00  0.85303
2301.75  0.85211
2301.50  0.85087
2301.25  0.85219
2301.00  0.85403
2300.75  0.85214
2300.50  0.85221
2300.25  0.85256
2300.00  0.85178
2299.75  0.85427
2299.50  0.85342
2299.25  0.85367
2299.00  0.85447
2298.75  0.85461
2298.50  0.85374
2298.25  0.85273
2298.00  0.85372
2297.75  0.85735
2297.50  0.85543
2297.25  0.85516
2297.00  0.85647
2296.75  0.85646
2296.50  0.85583
2296.25  0.85560
2296.00  0.85637
2295.75  0.85634
2295.50  0.85505
2295.25  0.85857
2295.00  0.85566
2294.75  0.85720
2294.50  0.85745
2294.25  0.85809
2294.00  0.85832
2293.75  0.85825
2293.50  0.85654
2293.25  0.85850
2293.00  0.85897
2292.75  0.85752
2292.50  0.86040
2292.25  0.86016
2292.00  0.85919
2291.75  0.85983
2291.50  0.85998
2291.25  0.86016
2291.00  0.85905
2290.75  0.86061
2290.50  0.85990
2290.25  0.86084
2290.00  0.86182
2289.75  0.86053
2289.50  0.86167
2289.25  0.86304
2289.00  0.86137
2288.75  0.86171
2288.50  0.86279
2288.25  0.86141
2288.00  0.86086
2287.75  0.86360
2287.50  0.86367
2287.25  0.86307
2287.00  0.86476
2286.75  0.86473
2286.50  0.86451
2286.25  0.86393
2286.00  0.86472
2285.75  0.86279
2285.50  0.86486
2285.25  0.86313
2285.00  0.86357
2284.75  0.86473
2284.50  0.86480
2284.25  0.86572
2284.00  0.86421
2283.75  0.86480
2283.50  0.86541
2283.25  0.86549
2283.00  0.86520
2282.75  0.86441
2282.50  0.86563
2282.25  0.86474
2282.00  0.86527
2281.75  0.86576
2281.50  0.86735
2281.25  0.86584
2281.00  0.86545
2280.75  0.86668
2280.50  0.86689
2280.25  0.86666
2280.00  0.86442
2279.75  0.86651
2279.50  0.86590
2279.25  0.86667
2279.00  0.86792
2278.75  0.86631
2278.50  0.86684
2278.25  0.86737
2278.00  0.86740
2277.75  0.86723
2277.50  0.86687
2277.25  0.86645
2277.00  0.86858
2276.75  0.86768
2276.50  0.86698
2276.25  0.86799
2276.00  0.86579
2275.75  0.86807
2275.50  0.86599
2275.25  0.86780
2275.00  0.86708
2274.75  0.86770
2274.50  0.86773
2274.25  0.86767
2274.00  0.86600
2273.75  0.86662
2273.50  0.86880
2273.25  0.86827
2273.00  0.86834
2272.75  0.86950
2272.50  0.86875
2272.25  0.86921
2272.00  0.86737
2271.75  0.86885
2271.50  0.86757
2271.25  0.86753
2271.00  0.86565
2270.75  0.86762
2270.50  0.86822
2270.25  0.86768
2270.00  0.86796
2269.75  0.86873
2269.50  0.86715
2269.25  0.86729
2269.00  0.86910
2268.75  0.86769
2268.50  0.86873
2268.25  0.86895
2268.00  0.86741
2267.75  0.86786
2267.50  0.86883
2267.25  0.86823
2267.00  0.86695
2266.75  0.86811
2266.50  0.86692
2266.25  0.86748
2266.00  0.86853
2265.75  0.86806
2265.50  0.86872
2265.25  0.86797
2265.00  0.86779
2264.75  0.86798
2264.50  0.86824
2264.25  0.86821
2264.00  0.86628
2263.75  0.86787
2263.50  0.86706
2263.25  0.86914
2263.00  0.86693
2262.75  0.86749
2262.50  0.86758
2262.25  0.86762
2262.00  0.86761
2261.75  0.86750
2261.50  0.86708
2261.25  0.86778
2261.00  0.86722
2260.75  0.86538
2260.50  0.86762
2260.25  0.86655
2260.00  0.86726
2259.75  0.86839
2259.50  0.86767
2259.25  0.86656
2259.00  0.86646
2258.75  0.86628
2258.50  0.86719
2258.25  0.86662
2258.00  0.86701
2257.75  0.86674
2257.50  0.86697
2257.25  0.86573
2257.00  0.86729
2256.75  0.86669
2256.50  0.86522
2256.25  0.86659
2256.00  0.86582
2255.75  0.86613
2255.50  0.86541
2255.25  0.86510
2255.00  0.86545
2254.75  0.86467
2254.50  0.86545
2254.25  0.86535
2254.00  0.86462
2253.75  0.86428
2253.50  0.86513
2253.25  0.86389
2253.00  0.86476
2252.75  0.86404
2252.50  0.86353
2252.25  0.86319
2252.00  0.86198
2251.75  0.86132
2251.50  0.86214
2251.25  0.86355
2251.00  0.86125
2250.75  0.86200
2250.50  0.86240
2250.25  0.86176
2250.00  0.86120
2249.75  0.86068
2249.50  0.86308
2249.25  0.86042
2249.00  0.85904
2248.75  0.85936
2248.50  0.86046
2248.25  0.86083
2248.00  0.86043
2247.75  0.85959
2247.50  0.85877
2247.25  0.85947
2247.00  0.86011
2246.75  0.85886
2246.50  0.85881
2246.25  0.85900
2246.00  0.85691
2245.75  0.85659
2245.50  0.85736
2245.25  0.85672
2245.00  0.85571
2244.75  0.85611
2244.50  0.85539
2244.25  0.85598
2244.00  0.85440
2243.75  0.85690
2243.50  0.85565
2243.25  0.85504
2243.00  0.85593
2242.75  0.85587
2242.50  0.85639
2242.25  0.85511
2242.00  0.85444
2241.75  0.85540
2241.50  0.85527
2241.25  0.85467
2241.00  0.85534
2240.75  0.85394
2240.50  0.85377
2240.25  0.85388
2240.00  0.85227
2239.75  0.85273
2239.50  0.85219
2239.25  0.85246
2239.00  0.85319
2238.75  0.85328
2238.50  0.85245
2238.25  0.85290
2238.00  0.85362
2237.75  0.85262
2237.50  0.85329
2237.25  0.85187
2237.00  0.85344
2236.75  0.85312
2236.50  0.85292
2236.25  0.85295
2236.00  0.85198
2235.75  0.85462
2235.50  0.85279
2235.25  0.85389
2235.00  0.85345
2234.75  0.85319
2234.50  0.85196
2234.25  0.85418
2234.00  0.85355
2233.75  0.85299
2233.50  0.85390
2233.25  0.85422
2233.00  0.85459
2232.75  0.85471
2232.50  0.85553
2232.25  0.85470
2232.00  0.85637
2231.75  0.85673
2231.50  0.85401
2231.25  0.85369
2231.00  0.85561
2230.75  0.85489
2230.50  0.85649
2230.25  0.85659
2230.00  0.85667
2229.75  0.85701
2229.50  0.85661
2229.25  0.85845
2229.00  0.85776
2228.75  0.85738
2228.50  0.85739
2228.25  0.85751
2228.00  0.85900
2227.75  0.85780
2227.50  0.85777
2227.25  0.85873
2227.00  0.85842
2226.75  0.85959
2226.50  0.85917
2226.25  0.85812
2226.00  0.85791
2225.75  0.85923
2225.50  0.85887
2225.25  0.85741
2225.00  0.85933
2224.75  0.85868
2224.50  0.86028
2224.25  0.85978
2224.00  0.86109
2223.75  0.85823
2223.50  0.85920
2223.25  0.85994
2223.00  0.85753
2222.75  0.85710
2222.50  0.85748
2222.25  0.85676
2222.00  0.85596
2221.75  0.85502
2221.50  0.85686
2221.25  0.85567
2221.00  0.85465
2220.75  0.85443
2220.50  0.85322
2220.25  0.85196
2220.00  0.85109
2219.75  0.85197
2219.50  0.84952
2219.25  0.84939
2219.00  0.84830
2218.75  0.84683
2218.50  0.84505
2218.25  0.84337
2218.00  0.84330
2217.75  0.84049
2217.50  0.83995
2217.25  0.83600
2217.00  0.83609
2216.75  0.83424
2216.50  0.83394
2216.25  0.83067
2216.00  0.82832
2215.75  0.82778
2215.50  0.82409
2215.25  0.82212
2215.00  0.81920
2214.75  0.81624
2214.50  0.81425
2214.25  0.81254
2214.00  0.81079
2213.75  0.80435
2213.50  0.80333
2213.25  0.80079
2213.00  0.79736
2212.75  0.79390
2212.50  0.79112
2212.25  0.78714
2212.00  0.78222
2211.75  0.77965
2211.50  0.77607
2211.25  0.77074
2211.00  0.76876
2210.75  0.76321
2210.50  0.75950
2210.25  0.75421
2210.00  0.75090
2209.75  0.74509
2209.50  0.74127
2209.25  0.73692
2209.00  0.73152
2208.75  0.72753
2208.50  0.72204
2208.25  0.71560
2208.00  0.71076
2207.75  0.70479
2207.50  0.69971
2207.25  0.69427
2207.00  0.68855
2206.75  0.68318
2206.50  0.67645
2206.25  0.67109
2206.00  0.66518
2205.75  0.65725
2205.50  0.65167
2205.25  0.64575
2205.00  0.63875
2204.75  0.63198
2204.50  0.62623
2204.25  0.61692
2204.00  0.61011
2203.75  0.60492
2203.50  0.59757
2203.25  0.59059
2203.00  0.58293
2202.75  0.57503
2202.50  0.56675
2202.25  0.55959
2202.00  0.55211
2201.75  0.54541
2201.50  0.53723
2201.25  0.52793
2201.00  0.52170
2200.75  0.51317
2200.50  0.50617
2200.25  0.49788
2200.00  0.48949
2199.75  0.48222
2199.50  0.47431
2199.25  0.46748
2199.00  0.45769
2198.75  0.45089
2198.50  0.44285
2198.25  0.43428
2198.00  0.42617
2197.75  0.41827
2197.50  0.41111
2197.25  0.40279
2197.00  0.39605
2196.75  0.38776
2196.50  0.38042
2196.25  0.37264
2196.00  0.36376
2195.75  0.35743
2195.50  0.34860
2195.25  0.34082
2195.00  0.33565
2194.75  0.32707
2194.50  0.31982
2194.25  0.31177
2194.00  0.30440
2193.75  0.29903
2193.50  0.29111
2193.25  0.28340
2193.00  0.27805
2192.75  0.27015
2192.50  0.26498
2192.25  0.25796
2192.00  0.25227
2191.75  0.24524
2191.50  0.24029
2191.25  0.23375
2191.00  0.22643
2190.75  0.22164
2190.50  0.21632
2190.25  0.21034
2190.00  0.20374
2189.75  0.20065
2189.50  0.19438
2189.25  0.18948
2189.00  0.18260
2188.75  0.17693
2188.50  0.17386
2188.25  0.16845
2188.00  0.16434
2187.75  0.16031
2187.50  0.15645
2187.25  0.15106
2187.00  0.14676
2186.75  0.14170
2186.50  0.13659
2186.25  0.13380
2186.00  0.13140
2185.75  0.12609
2185.50  0.12243
2185.25  0.11932
2185.00  0.11563
2184.75  0.11276
2184.50  0.10957
2184.25  0.10662
2184.00  0.10332
2183.75  0.10007
2183.50  0.09646
2183.25  0.09469
2183.00  0.09188
2182.75  0.08933
2182.50  0.08624
2182.25  0.08323
2182.00  0.08230
2181.75  0.07978
2181.50  0.07716
2181.25  0.07426
2181.00  0.07294
2180.75  0.07074
2180.50  0.06798
2180.25  0.06681
2180.00  0.06505
2179.75  0.06185
2179.50  0.06129
2179.25  0.05891
2179.00  0.05776
2178.75  0.05693
2178.50  0.05437
2178.25  0.05218
2178.00  0.05166
2177.75  0.04964
2177.50  0.04926
2177.25  0.04680
2177.00  0.04598
2176.75  0.04422
2176.50  0.04274
2176.25  0.04214
2176.00  0.04140
2175.75  0.03926
2175.50  0.03894
2175.25  0.03800
2175.00  0.03525
2174.75  0.03506
2174.50  0.03476
2174.25  0.03348
2174.00  0.03288
2173.75  0.03194
2173.50  0.03154
2173.25  0.03012
2173.00  0.02846
2172.75  0.02846
2172.50  0.02868
2172.25  0.02646
2172.00  0.02566
2171.75  0.02563
2171.50  0.02542
2171.25  0.02349
2171.00  0.02380
2170.75  0.02235
2170.50  0.02227
2170.25  0.02202
2170.00  0.02084
2169.75  0.02186
2169.50  0.01966
2169.25  0.02064
2169.00  0.01898
2168.75  0.01907
2168.50  0.01865
2168.25  0.01773
2168.00  0.01681
2167.75  0.01763
2167.50  0.01637
2167.25  0.01565
2167.00  0.01591
2166.75  0.01440
2166.50  0.01606
2166.25  0.01403
2166.00  0.01349
2165.75  0.01365
2165.50  0.01384
2165.25  0.01337
2165.00  0.01286
2164.75  0.01224
2164.50  0.01196
2164.25  0.01166
2164.00  0.01220
2163.75  0.01218
2163.50  0.01042
2163.25  0.01033
2163.00  0.01199
2162.75  0.01129
2162.50  0.01057
2162.25  0.01033
2162.00  0.00999
2161.75  0.00958
2161.50  0.00907
2161.25  0.00908
2161.00  0.00945
2160.75  0.00863
2160.50  0.00842
2160.25  0.00784
2160.00  0.00877
2159.75  0.00819
2159.50  0.00826
2159.25  0.00901
2159.00  0.00786
2158.75  0.00711
2158.50  0.00787
2158.25  0.00700
2158.00  0.00738
2157.75  0.00513
2157.50  0.00637
2157.25  0.00630
2157.00  0.00563
2156.75  0.00564
2156.50  0.00583
2156.25  0.00541
2156.00  0.00502
2155.75  0.00673
2155.50  0.00536
2155.25  0.00494
2155.00  0.00623
2154.75  0.00513
2154.50  0.00591
2154.25  0.00629
2154.00  0.00519
2153.75  0.00538
2153.50  0.00472
2153.25  0.00498
2153.00  0.00456
2152.75  0.00519
2152.50  0.00417
2152.25  0.00441
2152.00  0.00364
2151.75  0.00317
2151.50  0.00483
2151.25  0.00439
2151.00  0.00430
2150.75  0.00370
2150.50  0.00421
2150.25  0.00364
2150.00  0.00352
2149.75  0.00498
2149.50  0.00388
2149.25  0.00362
2149.00  0.00240
2148.75  0.00272
2148.50  0.00305
2148.25  0.00364
2148.00  0.00410
2147.75  0.00294
2147.50  0.00331
2147.25  0.00364
2147.00  0.00273
2146.75  0.00355
2146.50  0.00278
2146.25  0.00278
2146.00  0.00260
2145.75  0.00286
2145.50  0.00060
2145.25  0.00163
2145.00  0.00280
2144.75  0.00214
2144.50  0.00194
2144.25  0.00279
2144.00  0.00174
2143.75  0.00182
2143.50  0.00156
2143.25  0.00274
2143.00  0.00254
2142.75  0.00183
2142.50  0.00242
2142.25  0.00188
2142.00  0.00246
2141.75  0.00317
2141.50  0.00155
2141.25  0.00241
2141.00  0.00201
2140.75  0.00202
2140.50  0.00157
2140.25  0.00201
2140.00  0.00170
2139.75  0.00200
2139.50  0.00117
2139.25  0.00180
2139.00  0.00156
2138.75  0.00286
2138.50  0.00125
2138.25  0.00268
2138.00  0.00092
2137.75  0.00181
2137.50  0.00188
2137.25  0.00221
2137.00  0.00201
2136.75  0.00234
2136.50  0.00130
2136.25  0.00254
2136.00  0.00098
2135.75  0.00015
2135.50  0.00118
2135.25  0.00182
2135.00  0.00188
2134.75  0.00059
2134.50  0.00079
2134.25  0.00155
2134.00  0.00157
2133.75  0.00215
2133.50  0.00092
2133.25  0.00040
2133.00  0.00259
2132.75  0.00066
2132.50  0.00130
2132.25  0.00065
2132.00  0.00116
2131.75  0.00073
2131.50  0.00196
2131.25  0.00117
2131.00  0.00098
2130.75  0.00144
2130.50  0.00112
2130.25  0.00065
2130.00  0.00123
2129.75  0.00111
2129.50  0.00040
2129.25  0.00000
2129.00  0.00060
2128.75  0.00046
2128.50  0.00169
2128.25  0.00053
2128.00  0.00124
2127.75  0.00033
2127.50  0.00136
2127.25  0.00021
2127.00  0.00092
2126.75  0.00000
2126.50  0.00111
2126.25  0.00118
2126.00  0.00000
2125.75  0.00116
2125.50  0.00072
2125.25  0.00092
2125.00  0.00079
2124.75  0.00148
2124.50  0.00079
2124.25  0.00105
2124.00  0.00131
2123.75  0.00000
2123.50  0.00000
2123.25  0.00008
2123.00  0.00053
2122.75  0.00008
2122.50  0.00001
2122.25  0.00046
2122.00  0.00000
2121.75  0.00027
2121.50  0.00164
2121.25  0.00008
2121.00  0.00021
2120.75  0.00104
2120.50  0.00066
2120.25  0.00000
2120.00  0.00072
2119.75  0.00008
2119.50  0.00000
2119.25  0.00000
2119.00  0.00034
2118.75  0.00092
2118.50  0.00059
2118.25  0.00098
2118.00  0.00021
2117.75  0.00000
2117.50  0.00000
2117.25  0.00008
2117.00  0.00001
2116.75  0.00008
2116.50  0.00085
2116.25  0.00079
2116.00  0.00000
2115.75  0.00072
2115.50  0.00000
2115.25  0.00000
2115.00  0.00060
2114.75  0.00000
2114.50  0.00040
2114.25  0.00001
2114.00  0.00111
2113.75  0.00021
2113.50  0.00008
2113.25  0.00000
2113.00  0.00000
2112.75  0.00000
2112.50  0.00000
2112.25  0.00008
2112.00  0.00021
2111.75  0.00027
2111.50  0.00000
2111.25  0.00000
2111.00  0.00000
2110.75  0.00021
2110.50  0.00000
2110.25  0.00014
2110.00  0.00034
2109.75  0.00040
2109.50  0.00000
2109.25  0.00111
2109.00  0.00040
2108.75  0.00000
2108.50  0.00000
2108.25  0.00040
2108.00  0.00000
2107.75  0.00000
2107.50  0.00000
2107.25  0.00008
2107.00  0.00085
2106.75  0.00000
2106.50  0.00000
2106.25  0.00000
2106.00  0.00027
2105.75  0.00000
2105.50  0.00014
2105.25  0.00000
2105.00  0.00008
2104.75  0.00000
2104.50  0.00021
2104.25  0.00073
2104.00  0.00000
2103.75  0.00000
2103.50  0.00008
2103.25  0.00000
2103.00  0.00073
2102.75  0.00028
2102.50  0.00085
2102.25  0.00000
2102.00  0.00033
2101.75  0.00000
2101.50  0.00014
2101.25  0.00000
2101.00  0.00001
2100.75  0.00008
2100.50  0.00000
2100.25  0.00111
2100.00  0.00000
