NOTE:  This is the ORIGINAL transmission curve for the Y filter.
The one currently used by the ITC has been slightly modified to increase
transmission into the red to account for differences in calculated vs
actual background values.

# ED595-1  AO 60mm Dia x 5mm Thick
# ED595 AO MKO Y band 1020/100nm (970-1070nm) 
# NIRI Y-filter G0241 
# Room temp (298K), 0ยบ AOI, f/8 measured daa.
#
# wl(nm) Transmission
 900.00  0.00000
 900.25  0.00001
 900.50  0.00002
 900.75  0.00000
 901.00  0.00002
 901.25  0.00000
 901.50  0.00000
 901.75  0.00000
 902.00  0.00002
 902.25  0.00003
 902.50  0.00000
 902.75  0.00002
 903.00  0.00000
 903.25  0.00002
 903.50  0.00000
 903.75  0.00000
 904.00  0.00001
 904.25  0.00000
 904.50  0.00003
 904.75  0.00000
 905.00  0.00000
 905.25  0.00000
 905.50  0.00000
 905.75  0.00001
 906.00  0.00003
 906.25  0.00003
 906.50  0.00000
 906.75  0.00001
 907.00  0.00002
 907.25  0.00000
 907.50  0.00000
 907.75  0.00001
 908.00  0.00000
 908.25  0.00000
 908.50  0.00001
 908.75  0.00001
 909.00  0.00001
 909.25  0.00002
 909.50  0.00000
 909.75  0.00000
 910.00  0.00000
 910.25  0.00000
 910.50  0.00000
 910.75  0.00002
 911.00  0.00000
 911.25  0.00000
 911.50  0.00000
 911.75  0.00001
 912.00  0.00000
 912.25  0.00001
 912.50  0.00001
 912.75  0.00002
 913.00  0.00000
 913.25  0.00002
 913.50  0.00000
 913.75  0.00003
 914.00  0.00000
 914.25  0.00000
 914.50  0.00003
 914.75  0.00000
 915.00  0.00000
 915.25  0.00002
 915.50  0.00000
 915.75  0.00000
 916.00  0.00001
 916.25  0.00002
 916.50  0.00000
 916.75  0.00000
 917.00  0.00003
 917.25  0.00002
 917.50  0.00000
 917.75  0.00000
 918.00  0.00000
 918.25  0.00000
 918.50  0.00000
 918.75  0.00000
 919.00  0.00000
 919.25  0.00003
 919.50  0.00000
 919.75  0.00001
 920.00  0.00003
 920.25  0.00000
 920.50  0.00002
 920.75  0.00001
 921.00  0.00001
 921.25  0.00000
 921.50  0.00001
 921.75  0.00001
 922.00  0.00000
 922.25  0.00002
 922.50  0.00002
 922.75  0.00000
 923.00  0.00001
 923.25  0.00000
 923.50  0.00000
 923.75  0.00001
 924.00  0.00000
 924.25  0.00001
 924.50  0.00000
 924.75  0.00003
 925.00  0.00000
 925.25  0.00003
 925.50  0.00002
 925.75  0.00000
 926.00  0.00003
 926.25  0.00000
 926.50  0.00003
 926.75  0.00003
 927.00  0.00003
 927.25  0.00006
 927.50  0.00003
 927.75  0.00002
 928.00  0.00003
 928.25  0.00003
 928.50  0.00005
 928.75  0.00001
 929.00  0.00003
 929.25  0.00001
 929.50  0.00000
 929.75  0.00001
 930.00  0.00004
 930.25  0.00002
 930.50  0.00004
 930.75  0.00003
 931.00  0.00001
 931.25  0.00003
 931.50  0.00007
 931.75  0.00001
 932.00  0.00007
 932.25  0.00004
 932.50  0.00001
 932.75  0.00005
 933.00  0.00006
 933.25  0.00003
 933.50  0.00004
 933.75  0.00005
 934.00  0.00005
 934.25  0.00003
 934.50  0.00004
 934.75  0.00008
 935.00  0.00007
 935.25  0.00006
 935.50  0.00008
 935.75  0.00002
 936.00  0.00008
 936.25  0.00007
 936.50  0.00003
 936.75  0.00008
 937.00  0.00006
 937.25  0.00008
 937.50  0.00006
 937.75  0.00008
 938.00  0.00009
 938.25  0.00008
 938.50  0.00009
 938.75  0.00010
 939.00  0.00008
 939.25  0.00008
 939.50  0.00009
 939.75  0.00011
 940.00  0.00011
 940.25  0.00012
 940.50  0.00011
 940.75  0.00013
 941.00  0.00013
 941.25  0.00013
 941.50  0.00016
 941.75  0.00016
 942.00  0.00015
 942.25  0.00015
 942.50  0.00020
 942.75  0.00016
 943.00  0.00023
 943.25  0.00022
 943.50  0.00023
 943.75  0.00021
 944.00  0.00024
 944.25  0.00024
 944.50  0.00030
 944.75  0.00024
 945.00  0.00029
 945.25  0.00029
 945.50  0.00031
 945.75  0.00034
 946.00  0.00034
 946.25  0.00037
 946.50  0.00041
 946.75  0.00041
 947.00  0.00046
 947.25  0.00046
 947.50  0.00051
 947.75  0.00057
 948.00  0.00057
 948.25  0.00061
 948.50  0.00060
 948.75  0.00068
 949.00  0.00072
 949.25  0.00076
 949.50  0.00080
 949.75  0.00084
 950.00  0.00092
 950.25  0.00101
 950.50  0.00103
 950.75  0.00114
 951.00  0.00120
 951.25  0.00126
 951.50  0.00135
 951.75  0.00143
 952.00  0.00152
 952.25  0.00162
 952.50  0.00169
 952.75  0.00183
 953.00  0.00194
 953.25  0.00205
 953.50  0.00222
 953.75  0.00231
 954.00  0.00248
 954.25  0.00262
 954.50  0.00280
 954.75  0.00296
 955.00  0.00308
 955.25  0.00334
 955.50  0.00347
 955.75  0.00371
 956.00  0.00400
 956.25  0.00420
 956.50  0.00443
 956.75  0.00467
 957.00  0.00501
 957.25  0.00526
 957.50  0.00556
 957.75  0.00591
 958.00  0.00629
 958.25  0.00664
 958.50  0.00700
 958.75  0.00752
 959.00  0.00793
 959.25  0.00834
 959.50  0.00892
 959.75  0.00945
 960.00  0.01011
 960.25  0.01066
 960.50  0.01148
 960.75  0.01210
 961.00  0.01285
 961.25  0.01378
 961.50  0.01465
 961.75  0.01572
 962.00  0.01665
 962.25  0.01795
 962.50  0.01908
 962.75  0.02035
 963.00  0.02207
 963.25  0.02343
 963.50  0.02516
 963.75  0.02691
 964.00  0.02904
 964.25  0.03101
 964.50  0.03315
 964.75  0.03616
 965.00  0.03854
 965.25  0.04149
 965.50  0.04458
 965.75  0.04805
 966.00  0.05158
 966.25  0.05509
 966.50  0.06018
 966.75  0.06418
 967.00  0.06895
 967.25  0.07433
 967.50  0.07985
 967.75  0.08580
 968.00  0.09170
 968.25  0.09962
 968.50  0.10602
 968.75  0.11353
 969.00  0.12245
 969.25  0.13061
 969.50  0.14011
 969.75  0.14911
 970.00  0.16074
 970.25  0.17045
 970.50  0.18117
 970.75  0.19475
 971.00  0.20616
 971.25  0.21949
 971.50  0.23206
 971.75  0.24716
 972.00  0.26015
 972.25  0.27399
 972.50  0.29176
 972.75  0.30551
 973.00  0.32198
 973.25  0.33747
 973.50  0.35454
 973.75  0.36997
 974.00  0.38528
 974.25  0.40500
 974.50  0.41917
 974.75  0.43585
 975.00  0.45250
 975.25  0.46896
 975.50  0.48458
 975.75  0.49904
 976.00  0.51730
 976.25  0.53010
 976.50  0.54475
 976.75  0.55916
 977.00  0.57274
 977.25  0.58608
 977.50  0.59740
 977.75  0.61139
 978.00  0.62117
 978.25  0.63159
 978.50  0.64249
 978.75  0.65136
 979.00  0.66045
 979.25  0.66800
 979.50  0.67646
 979.75  0.68248
 980.00  0.68861
 980.25  0.69502
 980.50  0.69977
 980.75  0.70463
 981.00  0.70863
 981.25  0.71260
 981.50  0.71553
 981.75  0.71824
 982.00  0.72125
 982.25  0.72306
 982.50  0.72492
 982.75  0.72644
 983.00  0.72779
 983.25  0.72883
 983.50  0.72964
 983.75  0.73057
 984.00  0.73105
 984.25  0.73158
 984.50  0.73202
 984.75  0.73235
 985.00  0.73270
 985.25  0.73298
 985.50  0.73332
 985.75  0.73353
 986.00  0.73391
 986.25  0.73422
 986.50  0.73461
 986.75  0.73502
 987.00  0.73538
 987.25  0.73591
 987.50  0.73643
 987.75  0.73691
 988.00  0.73753
 988.25  0.73815
 988.50  0.73884
 988.75  0.73944
 989.00  0.74029
 989.25  0.74081
 989.50  0.74157
 989.75  0.74239
 990.00  0.74306
 990.25  0.74374
 990.50  0.74444
 990.75  0.74534
 991.00  0.74594
 991.25  0.74652
 991.50  0.74731
 991.75  0.74794
 992.00  0.74864
 992.25  0.74927
 992.50  0.74987
 992.75  0.75047
 993.00  0.75093
 993.25  0.75158
 993.50  0.75208
 993.75  0.75253
 994.00  0.75306
 994.25  0.75348
 994.50  0.75385
 994.75  0.75418
 995.00  0.75468
 995.25  0.75502
 995.50  0.75533
 995.75  0.75569
 996.00  0.75582
 996.25  0.75602
 996.50  0.75627
 996.75  0.75636
 997.00  0.75656
 997.25  0.75665
 997.50  0.75670
 997.75  0.75666
 998.00  0.75663
 998.25  0.75664
 998.50  0.75657
 998.75  0.75648
 999.00  0.75638
 999.25  0.75602
 999.50  0.75579
 999.75  0.75557
1000.00  0.75517
1000.25  0.75488
1000.50  0.75457
1000.75  0.75414
1001.00  0.75352
1001.25  0.75319
1001.50  0.75269
1001.75  0.75213
1002.00  0.75166
1002.25  0.75118
1002.50  0.75064
1002.75  0.75006
1003.00  0.74954
1003.25  0.74905
1003.50  0.74856
1003.75  0.74805
1004.00  0.74759
1004.25  0.74725
1004.50  0.74679
1004.75  0.74652
1005.00  0.74618
1005.25  0.74596
1005.50  0.74568
1005.75  0.74550
1006.00  0.74535
1006.25  0.74527
1006.50  0.74533
1006.75  0.74542
1007.00  0.74545
1007.25  0.74561
1007.50  0.74595
1007.75  0.74621
1008.00  0.74658
1008.25  0.74697
1008.50  0.74744
1008.75  0.74787
1009.00  0.74854
1009.25  0.74923
1009.50  0.74993
1009.75  0.75070
1010.00  0.75139
1010.25  0.75211
1010.50  0.75313
1010.75  0.75387
1011.00  0.75476
1011.25  0.75576
1011.50  0.75662
1011.75  0.75756
1012.00  0.75831
1012.25  0.75943
1012.50  0.76020
1012.75  0.76111
1013.00  0.76197
1013.25  0.76272
1013.50  0.76362
1013.75  0.76415
1014.00  0.76502
1014.25  0.76565
1014.50  0.76610
1014.75  0.76670
1015.00  0.76711
1015.25  0.76750
1015.50  0.76782
1015.75  0.76819
1016.00  0.76832
1016.25  0.76840
1016.50  0.76848
1016.75  0.76840
1017.00  0.76825
1017.25  0.76819
1017.50  0.76802
1017.75  0.76778
1018.00  0.76733
1018.25  0.76703
1018.50  0.76662
1018.75  0.76619
1019.00  0.76568
1019.25  0.76509
1019.50  0.76455
1019.75  0.76396
1020.00  0.76341
1020.25  0.76291
1020.50  0.76226
1020.75  0.76175
1021.00  0.76117
1021.25  0.76070
1021.50  0.76028
1021.75  0.75983
1022.00  0.75947
1022.25  0.75908
1022.50  0.75894
1022.75  0.75868
1023.00  0.75857
1023.25  0.75853
1023.50  0.75854
1023.75  0.75860
1024.00  0.75895
1024.25  0.75929
1024.50  0.75972
1024.75  0.76020
1025.00  0.76080
1025.25  0.76153
1025.50  0.76222
1025.75  0.76300
1026.00  0.76410
1026.25  0.76498
1026.50  0.76606
1026.75  0.76721
1027.00  0.76839
1027.25  0.76962
1027.50  0.77066
1027.75  0.77221
1028.00  0.77337
1028.25  0.77462
1028.50  0.77582
1028.75  0.77713
1029.00  0.77825
1029.25  0.77934
1029.50  0.78076
1029.75  0.78172
1030.00  0.78272
1030.25  0.78368
1030.50  0.78455
1030.75  0.78531
1031.00  0.78596
1031.25  0.78671
1031.50  0.78715
1031.75  0.78754
1032.00  0.78780
1032.25  0.78801
1032.50  0.78820
1032.75  0.78818
1033.00  0.78803
1033.25  0.78777
1033.50  0.78750
1033.75  0.78706
1034.00  0.78653
1034.25  0.78591
1034.50  0.78526
1034.75  0.78427
1035.00  0.78359
1035.25  0.78272
1035.50  0.78151
1035.75  0.78055
1036.00  0.77938
1036.25  0.77830
1036.50  0.77679
1036.75  0.77565
1037.00  0.77452
1037.25  0.77298
1037.50  0.77181
1037.75  0.77048
1038.00  0.76918
1038.25  0.76788
1038.50  0.76675
1038.75  0.76572
1039.00  0.76427
1039.25  0.76340
1039.50  0.76238
1039.75  0.76147
1040.00  0.76062
1040.25  0.75994
1040.50  0.75945
1040.75  0.75889
1041.00  0.75851
1041.25  0.75833
1041.50  0.75826
1041.75  0.75826
1042.00  0.75843
1042.25  0.75872
1042.50  0.75925
1042.75  0.75969
1043.00  0.76037
1043.25  0.76126
1043.50  0.76213
1043.75  0.76331
1044.00  0.76434
1044.25  0.76572
1044.50  0.76699
1044.75  0.76827
1045.00  0.76998
1045.25  0.77149
1045.50  0.77312
1045.75  0.77475
1046.00  0.77656
1046.25  0.77824
1046.50  0.77980
1046.75  0.78184
1047.00  0.78338
1047.25  0.78506
1047.50  0.78678
1047.75  0.78845
1048.00  0.79014
1048.25  0.79152
1048.50  0.79329
1048.75  0.79457
1049.00  0.79592
1049.25  0.79724
1049.50  0.79852
1049.75  0.79974
1050.00  0.80068
1050.25  0.80186
1050.50  0.80264
1050.75  0.80349
1051.00  0.80423
1051.25  0.80496
1051.50  0.80553
1051.75  0.80594
1052.00  0.80647
1052.25  0.80671
1052.50  0.80704
1052.75  0.80712
1053.00  0.80724
1053.25  0.80723
1053.50  0.80717
1053.75  0.80703
1054.00  0.80695
1054.25  0.80669
1054.50  0.80634
1054.75  0.80600
1055.00  0.80561
1055.25  0.80519
1055.50  0.80455
1055.75  0.80412
1056.00  0.80358
1056.25  0.80290
1056.50  0.80227
1056.75  0.80153
1057.00  0.80091
1057.25  0.80011
1057.50  0.79940
1057.75  0.79866
1058.00  0.79768
1058.25  0.79696
1058.50  0.79624
1058.75  0.79540
1059.00  0.79455
1059.25  0.79380
1059.50  0.79294
1059.75  0.79192
1060.00  0.79122
1060.25  0.79033
1060.50  0.78940
1060.75  0.78847
1061.00  0.78759
1061.25  0.78670
1061.50  0.78563
1061.75  0.78470
1062.00  0.78374
1062.25  0.78243
1062.50  0.78135
1062.75  0.78000
1063.00  0.77867
1063.25  0.77710
1063.50  0.77553
1063.75  0.77365
1064.00  0.77126
1064.25  0.76913
1064.50  0.76630
1064.75  0.76353
1065.00  0.75970
1065.25  0.75619
1065.50  0.75220
1065.75  0.74646
1066.00  0.74164
1066.25  0.73536
1066.50  0.72874
1066.75  0.72095
1067.00  0.71318
1067.25  0.70515
1067.50  0.69346
1067.75  0.68439
1068.00  0.67255
1068.25  0.66040
1068.50  0.64728
1068.75  0.63364
1069.00  0.62051
1069.25  0.60225
1069.50  0.58864
1069.75  0.57214
1070.00  0.55473
1070.25  0.53739
1070.50  0.51914
1070.75  0.50261
1071.00  0.48107
1071.25  0.46522
1071.50  0.44730
1071.75  0.42752
1072.00  0.41025
1072.25  0.39123
1072.50  0.37474
1072.75  0.35498
1073.00  0.33970
1073.25  0.32381
1073.50  0.30552
1073.75  0.29113
1074.00  0.27512
1074.25  0.26110
1074.50  0.24588
1074.75  0.23336
1075.00  0.22120
1075.25  0.20638
1075.50  0.19588
1075.75  0.18397
1076.00  0.17347
1076.25  0.16259
1076.50  0.15332
1076.75  0.14468
1077.00  0.13398
1077.25  0.12664
1077.50  0.11861
1077.75  0.11112
1078.00  0.10409
1078.25  0.09733
1078.50  0.09155
1078.75  0.08440
1079.00  0.07951
1079.25  0.07431
1079.50  0.06914
1079.75  0.06469
1080.00  0.06022
1080.25  0.05643
1080.50  0.05204
1080.75  0.04884
1081.00  0.04566
1081.25  0.04229
1081.50  0.03959
1081.75  0.03679
1082.00  0.03447
1082.25  0.03184
1082.50  0.02986
1082.75  0.02793
1083.00  0.02584
1083.25  0.02431
1083.50  0.02266
1083.75  0.02121
1084.00  0.01978
1084.25  0.01853
1084.50  0.01744
1084.75  0.01618
1085.00  0.01530
1085.25  0.01432
1085.50  0.01344
1085.75  0.01266
1086.00  0.01192
1086.25  0.01124
1086.50  0.01047
1086.75  0.00995
1087.00  0.00942
1087.25  0.00887
1087.50  0.00839
1087.75  0.00791
1088.00  0.00753
1088.25  0.00704
1088.50  0.00672
1088.75  0.00642
1089.00  0.00604
1089.25  0.00574
1089.50  0.00545
1089.75  0.00521
1090.00  0.00487
1090.25  0.00468
1090.50  0.00441
1090.75  0.00419
1091.00  0.00402
1091.25  0.00378
1091.50  0.00364
1091.75  0.00342
1092.00  0.00328
1092.25  0.00312
1092.50  0.00296
1092.75  0.00282
1093.00  0.00268
1093.25  0.00256
1093.50  0.00245
1093.75  0.00231
1094.00  0.00222
1094.25  0.00206
1094.50  0.00201
1094.75  0.00189
1095.00  0.00180
1095.25  0.00173
1095.50  0.00162
1095.75  0.00157
1096.00  0.00144
1096.25  0.00140
1096.50  0.00136
1096.75  0.00128
1097.00  0.00124
1097.25  0.00117
1097.50  0.00112
1097.75  0.00106
1098.00  0.00101
1098.25  0.00101
1098.50  0.00093
1098.75  0.00090
1099.00  0.00087
1099.25  0.00084
1099.50  0.00080
1099.75  0.00077
1100.00  0.00073
1100.25  0.00072
1100.50  0.00071
1100.75  0.00066
1101.00  0.00066
1101.25  0.00061
1101.50  0.00056
1101.75  0.00057
1102.00  0.00056
1102.25  0.00056
1102.50  0.00053
1102.75  0.00053
1103.00  0.00051
1103.25  0.00051
1103.50  0.00049
1103.75  0.00047
1104.00  0.00046
1104.25  0.00043
1104.50  0.00043
1104.75  0.00040
1105.00  0.00045
1105.25  0.00043
1105.50  0.00040
1105.75  0.00041
1106.00  0.00039
1106.25  0.00034
1106.50  0.00035
1106.75  0.00034
1107.00  0.00035
1107.25  0.00035
1107.50  0.00030
1107.75  0.00031
1108.00  0.00030
1108.25  0.00034
1108.50  0.00031
1108.75  0.00026
1109.00  0.00026
1109.25  0.00026
1109.50  0.00022
1109.75  0.00026
1110.00  0.00021
1110.25  0.00021
1110.50  0.00021
1110.75  0.00021
1111.00  0.00020
1111.25  0.00018
1111.50  0.00017
1111.75  0.00016
1112.00  0.00017
1112.25  0.00013
1112.50  0.00014
1112.75  0.00015
1113.00  0.00014
1113.25  0.00013
1113.50  0.00014
1113.75  0.00014
1114.00  0.00013
1114.25  0.00010
1114.50  0.00010
1114.75  0.00013
1115.00  0.00009
1115.25  0.00008
1115.50  0.00008
1115.75  0.00005
1116.00  0.00007
1116.25  0.00008
1116.50  0.00006
1116.75  0.00007
1117.00  0.00009
1117.25  0.00004
1117.50  0.00006
1117.75  0.00006
1118.00  0.00009
1118.25  0.00006
1118.50  0.00004
1118.75  0.00003
1119.00  0.00006
1119.25  0.00002
1119.50  0.00002
1119.75  0.00003
1120.00  0.00003
1120.25  0.00006
1120.50  0.00005
1120.75  0.00004
1121.00  0.00003
1121.25  0.00000
1121.50  0.00002
1121.75  0.00007
1122.00  0.00007
1122.25  0.00008
1122.50  0.00006
1122.75  0.00002
1123.00  0.00002
1123.25  0.00006
1123.50  0.00002
1123.75  0.00005
1124.00  0.00002
1124.25  0.00006
1124.50  0.00005
1124.75  0.00002
1125.00  0.00000
1125.25  0.00003
1125.50  0.00004
1125.75  0.00002
1126.00  0.00001
1126.25  0.00001
1126.50  0.00001
1126.75  0.00005
1127.00  0.00003
1127.25  0.00001
1127.50  0.00008
1127.75  0.00002
1128.00  0.00005
1128.25  0.00000
1128.50  0.00005
1128.75  0.00003
1129.00  0.00003
1129.25  0.00005
1129.50  0.00004
1129.75  0.00000
1130.00  0.00003
1130.25  0.00001
1130.50  0.00004
1130.75  0.00001
1131.00  0.00002
1131.25  0.00000
1131.50  0.00005
1131.75  0.00002
1132.00  0.00002
1132.25  0.00000
1132.50  0.00003
1132.75  0.00000
1133.00  0.00002
1133.25  0.00003
1133.50  0.00004
1133.75  0.00002
1134.00  0.00003
1134.25  0.00002
1134.50  0.00001
1134.75  0.00004
1135.00  0.00004
1135.25  0.00000
1135.50  0.00000
1135.75  0.00001
1136.00  0.00000
1136.25  0.00001
1136.50  0.00001
1136.75  0.00001
1137.00  0.00001
1137.25  0.00002
1137.50  0.00000
1137.75  0.00002
1138.00  0.00002
1138.25  0.00000
1138.50  0.00002
1138.75  0.00000
1139.00  0.00002
1139.25  0.00000
1139.50  0.00000
1139.75  0.00002
1140.00  0.00000
1140.25  0.00000
1140.50  0.00000
1140.75  0.00001
1141.00  0.00000
1141.25  0.00000
1141.50  0.00001
1141.75  0.00000
1142.00  0.00002
1142.25  0.00001
1142.50  0.00001
1142.75  0.00000
1143.00  0.00000
1143.25  0.00000
1143.50  0.00000
1143.75  0.00002
1144.00  0.00000
1144.25  0.00000
1144.50  0.00001
1144.75  0.00000
1145.00  0.00001
1145.25  0.00000
1145.50  0.00000
1145.75  0.00003
1146.00  0.00000
1146.25  0.00000
1146.50  0.00000
1146.75  0.00001
1147.00  0.00000
1147.25  0.00001
1147.50  0.00001
1147.75  0.00000
1148.00  0.00000
1148.25  0.00000
1148.50  0.00000
1148.75  0.00001
1149.00  0.00000
1149.25  0.00000
1149.50  0.00000
1149.75  0.00000
1150.00  0.00000
